#Strain and Orientation Refinement from experimental file: defaultGe0001.cor
#File created at Tue Oct  8 13:06:51 2024 with LaueToolsGUI.py
#Number of indexed spots: 83
#Mean Deviation(pixel): 0.401
##spot_index Intensity h k l pixDev energy(keV) Xexp Yexp 2theta_exp chi_exp Xtheo Ytheo 2theta_theo chi_theo Qx Qy Qz
59.000000 1576.400000 3.000000 3.000000 1.000000 0.516636 6.014637 1426.670000 858.780000 105.118579 -23.684842 1426.323325 858.396948 105.142575 -23.665528 -0.611856 -0.187968 0.428905
46.000000 2377.760000 5.000000 3.000000 1.000000 0.438926 7.092304 1274.860000 306.950000 132.148718 -14.811238 1274.957675 307.377920 132.132818 -14.817214 -0.955814 -0.108491 0.410122
8.000000 13318.810000 3.000000 5.000000 1.000000 0.377984 9.872395 1672.670000 1258.620000 82.082531 -35.893669 1672.320479 1258.476099 82.088742 -35.878372 -0.686689 -0.462237 0.639063
16.000000 8515.140000 5.000000 5.000000 1.000000 0.340984 9.584290 1579.390000 754.630000 109.466665 -31.661244 1579.730520 754.612225 109.464298 -31.677684 -1.030647 -0.382759 0.620281
18.000000 6598.440000 7.000000 5.000000 1.000000 0.322213 10.567571 1481.200000 364.840000 127.783924 -26.742275 1481.490985 364.701619 127.785226 -26.757742 -1.374605 -0.303282 0.601498
35.000000 3856.170000 5.000000 7.000000 1.000000 0.570688 13.140664 1730.330000 1063.320000 92.492295 -38.358378 1730.136699 1063.856954 92.464581 -38.350398 -1.105480 -0.657028 0.830439
51.000000 2052.310000 7.000000 7.000000 1.000000 0.130456 13.229183 1660.860000 706.310000 110.993916 -35.434863 1660.851921 706.179795 111.000153 -35.434520 -1.449438 -0.577551 0.811657
63.000000 1343.440000 9.000000 7.000000 1.000000 0.599642 14.147729 1588.650000 403.050000 124.875818 -32.152397 1588.318246 403.549509 124.861650 -32.136499 -1.793396 -0.498073 0.792874
55.000000 1746.380000 5.000000 9.000000 1.000000 0.279040 17.558978 1819.620000 1305.460000 80.397136 -41.821846 1819.768876 1305.223993 80.409339 -41.827383 -1.180312 -0.931297 1.040597
50.000000 2077.070000 7.000000 9.000000 1.000000 0.542965 16.646089 1765.960000 958.470000 97.758416 -39.799662 1766.367302 958.110952 97.774582 -39.815721 -1.524271 -0.851819 1.021815
75.000000 772.050000 9.000000 9.000000 1.000000 0.617504 16.898717 1711.330000 678.470000 111.728004 -37.608833 1711.034076 677.928022 111.755978 -37.596511 -1.868229 -0.772342 1.003033
14.000000 10010.520000 4.000000 2.000000 2.000000 0.259547 6.367111 873.560000 706.970000 114.924504 11.529784 873.471699 706.725935 114.937176 11.535354 -0.730089 0.093123 0.456275
1.000000 51933.840000 2.000000 4.000000 2.000000 0.275202 10.085027 1379.170000 1553.580000 64.331116 -20.838084 1378.935828 1553.724566 64.321792 -20.824389 -0.460963 -0.260623 0.685215
5.000000 17182.880000 6.000000 4.000000 2.000000 0.259520 9.440907 1183.270000 598.920000 120.579636 -8.904634 1183.528607 598.898252 120.579484 -8.921451 -1.148880 -0.101668 0.647651
9.000000 13145.990000 4.000000 6.000000 2.000000 0.332195 12.329465 1497.400000 1224.700000 83.357761 -27.458691 1497.293533 1224.385328 83.375851 -27.453146 -0.879754 -0.455414 0.876591
24.000000 5055.990000 8.000000 6.000000 2.000000 0.443337 12.849197 1352.760000 568.030000 120.830494 -19.485897 1352.325453 567.942158 120.838644 -19.460190 -1.567670 -0.296459 0.839027
22.000000 5481.590000 6.000000 8.000000 2.000000 0.508163 15.512671 1573.490000 1073.130000 92.196305 -31.332109 1573.532185 1073.636409 92.167439 -31.334093 -1.298545 -0.650205 1.067968
42.000000 2775.350000 10.000000 8.000000 2.000000 0.308323 16.380424 1458.760000 556.690000 120.232994 -25.505818 1458.463775 556.775522 120.232560 -25.489731 -1.986461 -0.491250 1.030403
56.000000 1676.950000 8.000000 10.000000 2.000000 0.265942 18.947858 1626.900000 982.640000 97.096215 -33.871043 1626.678662 982.492572 97.105141 -33.860884 -1.717336 -0.844996 1.259344
82.000000 492.940000 12.000000 10.000000 2.000000 0.507331 19.970373 1530.970000 552.130000 119.571785 -29.294674 1531.365581 552.447649 119.552961 -29.314661 -2.405252 -0.686041 1.221779
20.000000 6137.870000 3.000000 1.000000 3.000000 0.454742 7.296838 548.250000 1260.320000 81.761411 30.377668 547.858365 1260.088889 81.776159 30.397050 -0.504363 0.294737 0.502427
30.000000 4400.610000 5.000000 1.000000 3.000000 0.245160 7.991329 383.770000 754.580000 108.434834 37.737504 383.938501 754.758075 108.427980 37.730529 -0.848321 0.374215 0.483645
0.000000 70931.270000 3.000000 3.000000 3.000000 0.487752 9.029553 1027.110000 1293.280000 78.214688 1.633027 1026.927228 1293.732213 78.185882 1.645354 -0.579196 0.020469 0.712586
3.000000 19489.690000 5.000000 3.000000 3.000000 0.506675 9.022072 926.220000 872.060000 105.604815 8.176401 925.900542 872.453277 105.580063 8.197390 -0.923154 0.099946 0.693803
13.000000 10271.900000 7.000000 3.000000 3.000000 0.305658 10.241481 819.910000 552.840000 122.276532 14.866829 819.613382 552.913791 122.270987 14.885305 -1.267112 0.179424 0.675021
32.000000 4170.570000 9.000000 3.000000 3.000000 0.112813 11.901970 707.200000 261.110000 132.706479 21.534262 707.267873 261.200111 132.704228 21.530383 -1.611070 0.258901 0.656238
2.000000 22795.070000 3.000000 5.000000 3.000000 0.315745 12.735113 1288.110000 1460.160000 68.682077 -15.368318 1288.278813 1459.893172 68.697947 -15.378861 -0.654028 -0.253800 0.922744
17.000000 8262.020000 5.000000 5.000000 3.000000 0.496872 11.450987 1216.490000 1042.280000 94.639547 -10.939033 1216.118820 1042.610314 94.618539 -10.915082 -0.997987 -0.174322 0.903962
33.000000 4160.120000 7.000000 5.000000 3.000000 0.472023 11.979777 1140.930000 748.400000 112.897823 -6.092408 1141.285967 748.709990 112.879425 -6.115776 -1.341945 -0.094845 0.885179
48.000000 2195.880000 9.000000 5.000000 3.000000 0.166442 13.211868 1063.250000 497.790000 125.601680 -1.012245 1063.309469 497.945455 125.594806 -1.016158 -1.685903 -0.015367 0.866397
66.000000 1253.580000 11.000000 5.000000 3.000000 0.397074 14.789739 982.110000 264.380000 134.545219 4.310146 981.878247 264.057574 134.555514 4.325380 -2.029861 0.064110 0.847614
21.000000 5781.180000 5.000000 7.000000 3.000000 0.426528 14.985493 1396.710000 1217.560000 83.521986 -21.919531 1396.921748 1217.189745 83.545118 -21.931764 -1.072819 -0.448591 1.114120
41.000000 2830.160000 7.000000 7.000000 3.000000 0.418820 14.628208 1339.110000 926.870000 101.585168 -18.598044 1339.528471 926.887091 101.582360 -18.623100 -1.416777 -0.369114 1.095338
47.000000 2278.070000 9.000000 7.000000 3.000000 0.347725 15.290523 1280.510000 691.440000 115.330297 -15.073432 1280.267011 691.688735 115.318873 -15.058279 -1.760736 -0.289636 1.076555
62.000000 1361.220000 11.000000 7.000000 3.000000 0.433289 16.472554 1219.190000 482.300000 125.721873 -11.252981 1218.942360 481.944453 125.738677 -11.237208 -2.104694 -0.210159 1.057773
49.000000 2124.740000 5.000000 9.000000 3.000000 0.290304 19.409319 1520.650000 1382.650000 74.523371 -28.642757 1520.363139 1382.694575 74.518939 -28.627995 -1.147652 -0.722860 1.324278
54.000000 1877.760000 7.000000 9.000000 3.000000 0.315419 18.049795 1473.720000 1088.400000 91.420294 -26.223151 1473.946444 1088.619573 91.406956 -26.235269 -1.491610 -0.643382 1.305496
76.000000 708.970000 11.000000 9.000000 3.000000 0.381464 18.750802 1377.040000 659.840000 116.187921 -20.891891 1377.350729 660.061274 116.174052 -20.909914 -2.179527 -0.484427 1.267931
4.000000 19058.790000 6.000000 2.000000 4.000000 0.315532 10.415732 595.460000 876.440000 103.845708 27.858879 595.626769 876.172141 103.861616 27.850106 -1.041386 0.381038 0.721173
10.000000 11799.930000 6.000000 6.000000 4.000000 0.712946 14.311001 1176.090000 1086.190000 91.799493 -8.308618 1176.689364 1085.803924 91.824592 -8.347864 -1.191052 -0.167499 1.141490
37.000000 3277.590000 10.000000 6.000000 4.000000 0.179783 15.668479 1055.140000 634.640000 119.131343 -0.432027 1055.311948 634.692497 119.128603 -0.443465 -1.878968 -0.008544 1.103925
80.000000 646.940000 14.000000 6.000000 4.000000 0.523039 18.712898 925.430000 261.100000 134.462180 8.035514 925.533159 260.587235 134.479808 8.028622 -2.566885 0.150410 1.066361
31.000000 4305.200000 8.000000 8.000000 4.000000 0.714353 17.325703 1283.340000 976.690000 98.704107 -15.183399 1283.707436 976.077391 98.741571 -15.206360 -1.609843 -0.362291 1.332866
19.000000 6505.450000 5.000000 1.000000 5.000000 0.043295 12.111125 399.870000 1297.190000 80.503465 37.209460 399.847478 1297.226975 80.501676 37.210424 -0.815661 0.582652 0.767326
39.000000 3125.110000 7.000000 1.000000 5.000000 0.326966 12.527425 289.690000 945.970000 98.497587 41.504791 289.963654 946.148942 98.490108 41.494601 -1.159619 0.662129 0.748543
7.000000 15486.200000 3.000000 3.000000 5.000000 0.363703 15.240117 856.140000 1702.520000 56.255187 12.958843 856.437246 1702.310417 56.262574 12.939906 -0.546535 0.228906 0.996267
11.000000 11662.160000 5.000000 3.000000 5.000000 0.378128 12.833551 780.270000 1242.530000 81.950783 17.524953 780.518175 1242.244710 81.967862 17.509799 -0.890493 0.308383 0.977484
29.000000 4413.680000 7.000000 3.000000 5.000000 0.758434 13.023261 702.520000 949.880000 100.134832 22.021368 702.430766 950.633166 100.089383 22.026720 -1.234452 0.387861 0.958702
45.000000 2612.620000 9.000000 3.000000 5.000000 0.280420 14.111950 621.540000 713.500000 112.736928 26.432602 621.454776 713.232844 112.749695 26.437073 -1.578410 0.467338 0.939919
67.000000 1183.420000 11.000000 3.000000 5.000000 0.332478 15.617070 537.370000 496.910000 121.757999 30.688117 537.238243 497.215256 121.743662 30.694695 -1.922368 0.546816 0.921137
15.000000 9107.770000 3.000000 5.000000 5.000000 0.591148 18.392621 1085.800000 1725.830000 54.494529 -2.157887 1085.734758 1726.417537 54.468412 -2.153362 -0.621368 -0.045363 1.206425
27.000000 4673.940000 7.000000 5.000000 5.000000 0.514597 14.645983 967.150000 1019.900000 96.247693 5.532871 966.882391 1020.339540 96.218758 5.550689 -1.309284 0.113592 1.168860
36.000000 3693.430000 9.000000 5.000000 5.000000 0.801126 15.347739 905.640000 804.810000 109.570449 9.494510 905.094530 804.223259 109.602930 9.529687 -1.653243 0.193070 1.150078
61.000000 1399.400000 11.000000 5.000000 5.000000 0.428070 16.583598 841.450000 613.020000 119.566735 13.537909 841.333978 613.432047 119.545833 13.545346 -1.997201 0.272547 1.131295
77.000000 706.880000 13.000000 5.000000 5.000000 0.440797 18.118153 775.110000 434.930000 127.000067 17.578574 775.439160 434.636818 127.014894 17.558564 -2.341159 0.352025 1.112513
23.000000 5182.440000 5.000000 7.000000 5.000000 0.388802 18.435944 1199.060000 1387.530000 72.519345 -9.725157 1199.423771 1387.667249 72.512182 -9.748717 -1.040159 -0.240154 1.397801
40.000000 3088.730000 7.000000 7.000000 5.000000 0.409296 17.212815 1151.050000 1115.850000 89.849013 -6.658633 1150.857365 1116.211130 89.825134 -6.645856 -1.384117 -0.160676 1.379019
52.000000 1952.150000 9.000000 7.000000 5.000000 0.210193 17.373232 1101.370000 907.290000 103.488400 -3.429799 1101.165580 907.338922 103.485564 -3.416204 -1.728075 -0.081199 1.360236
70.000000 1019.630000 11.000000 7.000000 5.000000 0.371147 18.228188 1050.010000 728.620000 114.142757 -0.062505 1050.173959 728.287032 114.161163 -0.073529 -2.072033 -0.001722 1.341454
73.000000 860.610000 7.000000 9.000000 5.000000 0.411084 20.578480 1285.920000 1221.220000 83.065483 -15.287295 1286.231188 1221.488611 83.048983 -15.306556 -1.458950 -0.434945 1.589177
81.000000 550.970000 9.000000 9.000000 5.000000 0.693105 20.090096 1244.110000 1013.220000 96.474239 -12.710904 1244.794161 1013.330989 96.465820 -12.754290 -1.802908 -0.355468 1.570395
6.000000 15825.390000 4.000000 2.000000 6.000000 0.181010 16.317419 626.120000 1661.280000 60.343559 26.480720 626.069840 1661.453922 60.336287 26.483459 -0.664768 0.509998 1.023637
25.000000 4950.230000 8.000000 2.000000 6.000000 0.300197 14.892025 467.050000 984.600000 97.245144 34.166719 467.349960 984.588053 97.246883 34.153019 -1.352684 0.668952 0.986072
71.000000 943.570000 12.000000 2.000000 6.000000 0.517114 17.464939 296.950000 544.570000 116.632604 41.129167 297.290948 544.181206 116.652642 41.116183 -2.040601 0.827907 0.948507
12.000000 10727.930000 6.000000 4.000000 6.000000 0.152429 15.730994 828.680000 1246.060000 81.594047 14.542431 828.663306 1245.908487 81.603672 14.543426 -1.083559 0.315206 1.215013
38.000000 3232.590000 10.000000 4.000000 6.000000 0.241400 16.619560 703.420000 801.020000 108.748813 21.922589 703.206978 800.906441 108.753662 21.934771 -1.771475 0.474161 1.177448
53.000000 1878.930000 4.000000 6.000000 6.000000 0.355036 20.929822 1075.860000 1633.060000 58.814593 -1.521231 1075.973197 1632.723493 58.831140 -1.528888 -0.814433 -0.038540 1.443954
28.000000 4649.480000 8.000000 6.000000 6.000000 0.554459 17.534233 977.500000 1060.310000 93.586514 4.860730 977.002748 1060.555287 93.570248 4.893735 -1.502350 0.120415 1.406389
74.000000 797.370000 10.000000 8.000000 6.000000 0.418993 20.164362 1090.080000 954.930000 100.467083 -2.665535 1090.076736 955.348980 100.440110 -2.665198 -1.921140 -0.074376 1.597765
44.000000 2634.420000 7.000000 1.000000 7.000000 0.326571 17.015747 327.890000 1321.030000 79.711534 40.142547 327.857221 1321.354922 79.695682 40.143911 -1.126959 0.870567 1.032224
69.000000 1055.910000 9.000000 1.000000 7.000000 0.258264 17.250482 245.420000 1050.380000 93.267601 43.144472 245.244686 1050.190354 93.276506 43.150649 -1.470917 0.950044 1.013442
34.000000 4044.720000 5.000000 3.000000 7.000000 0.270162 18.741669 701.050000 1560.170000 64.375595 22.299023 701.319377 1560.190580 64.372037 22.283622 -0.857833 0.516820 1.261165
26.000000 4761.410000 7.000000 3.000000 7.000000 0.474534 17.245645 638.870000 1246.590000 82.183646 25.665024 639.344514 1246.585724 82.182109 25.639288 -1.201791 0.596298 1.242383
57.000000 1646.400000 9.000000 3.000000 7.000000 0.396923 17.417810 576.200000 1016.970000 95.770175 28.895747 575.899524 1017.229348 95.754416 28.911184 -1.545749 0.675775 1.223600
72.000000 887.260000 11.000000 3.000000 7.000000 0.507546 18.347248 510.170000 824.170000 106.065914 32.104895 510.648052 823.999503 106.078508 32.081975 -1.889708 0.755253 1.204818
60.000000 1466.190000 5.000000 5.000000 7.000000 0.447142 20.561006 911.320000 1538.140000 64.024223 9.358494 911.276613 1537.694968 64.048150 9.361174 -0.932666 0.242552 1.471324
43.000000 2670.740000 7.000000 5.000000 7.000000 0.591305 18.662436 861.480000 1250.420000 81.234747 12.474373 861.069964 1249.993959 81.262858 12.500325 -1.276624 0.322029 1.452541
65.000000 1277.200000 9.000000 5.000000 7.000000 0.809835 18.525898 810.650000 1039.110000 94.869016 15.597527 809.896156 1039.405890 94.849261 15.644257 -1.620582 0.401507 1.433759
78.000000 703.030000 11.000000 5.000000 7.000000 0.404589 19.225886 757.840000 863.720000 105.492682 18.754510 757.513143 863.958447 105.477087 18.774121 -1.964540 0.480984 1.414976
79.000000 655.210000 9.000000 7.000000 7.000000 0.322620 20.450177 983.890000 1090.230000 91.601396 4.446523 984.202413 1090.310509 91.595998 4.425831 -1.695415 0.127238 1.643917
64.000000 1331.830000 6.000000 2.000000 8.000000 0.277292 20.638813 521.920000 1574.920000 65.551784 31.760972 521.784797 1574.677902 65.564733 31.767430 -0.976066 0.797912 1.288535
68.000000 1105.270000 10.000000 2.000000 8.000000 0.354311 19.555962 393.710000 1057.160000 93.164117 37.403718 393.506460 1057.450013 93.148485 37.412363 -1.663982 0.956867 1.250971
58.000000 1591.710000 8.000000 4.000000 8.000000 0.500081 19.996685 701.500000 1242.550000 82.200308 22.172558 701.493217 1242.049965 82.230672 22.172788 -1.394856 0.603121 1.479911
#UB matrix in q= (UB) B0 G* 
#[[-0.972971933 -0.211682803  0.09238831 ]
# [ 0.224821881 -0.775837447  0.589616385]
# [-0.053130714  0.59448563   0.80246271 ]]
#Umatrix in q_lab= (Umatrix) (B) B0 G* 
#[[-0.97285227  -0.211925375  0.092984389]
# [ 0.225344573 -0.775948452  0.589172151]
# [-0.052709436  0.594130992  0.802639446]]
#Bmatrix in q_lab= (U) (Bmatrix) B0 G* 
#[[1.000021067e+00 2.178750000e-04 7.517550000e-04]
# [0.000000000e+00 1.000212091e+00 2.393670000e-04]
# [0.000000000e+00 0.000000000e+00 9.997664570e-01]]
#(B-I)*1000 
#[[ 0.021  0.218  0.752]
# [ 0.     0.212  0.239]
# [ 0.     0.    -0.234]]
#HKL coord. of lab and sample frame axes :
#HKLx_lab_LT	[-1.    -0.218  0.095]
#HKLy_lab_LT	[ 0.29 -1.    0.76]
#HKLz_lab_LT	[-0.066  0.741  1.   ]
#HKLx_sample_LT	[-1.     0.282  0.752]
#HKLy_sample_LT	[ 0.29 -1.    0.76]
#HKLz_sample_LT	[0.989 1.    0.939]
#B0 matrix in q= UB (B0) G*
#[[ 0.17675652 -0.         -0.        ]
# [ 0.          0.17675652 -0.        ]
# [ 0.          0.          0.17675652]]
#UBB0 matrix in q= (UB B0) G* i.e. recip. basis vectors are columns in LT frame: astar = UBB0[:,0], bstar = UBB0[:,1], cstar = UBB0[:,2]. (abcstar as columns on xyzlab1, xlab1 = ui, ui = unit vector along incident beam)
#[[-0.17197913 -0.03741632  0.01633024]
# [ 0.03973873 -0.13713433  0.10421854]
# [-0.0093912   0.10507921  0.14184051]]
#Euler angles phi theta psi (deg)
#[185.107  36.642   8.909]
#deviatoric strain in direct crystal frame (10-3 unit)
#[[ 0.03  0.02 -0.02]
# [ 0.02 -0.02 -0.02]
# [-0.02 -0.02 -0.01]]
#deviatoric strain in sample2 frame (10-3 unit)
#[[ 0.01  0.02 -0.04]
# [ 0.02 -0.01 -0.  ]
# [-0.04 -0.   -0.01]]
#new lattice parameters
#[ 5.6575     5.6572048  5.6572529 90.0028107 90.0018343 89.9971781]
#CCDLabel
#MARCCD165
#DetectorParameters
#[69.19342754475345, 1050.794345891874, 1116.327810826288, 0.15417619666612448, -0.2545321400079965]
#pixelsize
#0.08057
#Frame dimensions
#(2048, 2048)
#
